  SFIT4:V0.9.4.3 :Release -- January 2014 RUNTIME:20140213-09:10:34 OBSERVED, FITTED AND DIFFERENCE SPECTRA
           3           3
 31/03/2005, 15:14:50, SCAN TIME:142.53 SEC. RES= 0.0050  APOD FN = BX          
       80230    1.883268360000000E-03          53     2727.731542429080037     2727.829472383799839        0.021000000000000    1    1    3
   2727.731542  1.00007E+0000  9.99233E-0001  9.98003E-0001  1.00245E+0000  1.00582E+0000  1.00060E+0000  9.97754E-0001  9.99171E-0001  9.93184E-0001  9.87409E-0001  9.91299E-0001  9.91271E-0001
                9.99997E-0001  1.00000E+0000  9.99280E-0001  9.98816E-0001  9.98683E-0001  9.97685E-0001  9.97017E-0001  9.96626E-0001  9.94985E-0001  9.93652E-0001  9.92361E-0001  9.88985E-0001
                7.80961E-0005 -7.66965E-0004 -1.27684E-0003  3.63648E-0003  7.13484E-0003  2.91157E-0003  7.37248E-0004  2.54519E-0003 -1.80095E-0003 -6.24268E-0003 -1.06188E-0003  2.28666E-0003
   2727.754142  9.83174E-0001  9.78009E-0001  9.71036E-0001  9.53965E-0001  9.24887E-0001  8.78063E-0001  8.37793E-0001  8.52124E-0001  9.10161E-0001  9.54181E-0001  9.70138E-0001  9.77628E-0001
                9.85475E-0001  9.80522E-0001  9.70127E-0001  9.55463E-0001  9.27717E-0001  8.77436E-0001  8.37957E-0001  8.54973E-0001  9.10932E-0001  9.53305E-0001  9.70680E-0001  9.79799E-0001
               -2.30179E-0003 -2.51316E-0003  9.09479E-0004 -1.49756E-0003 -2.83000E-0003  6.26998E-0004 -1.63591E-0004 -2.84932E-0003 -7.70877E-0004  8.75362E-0004 -5.42233E-0004 -2.17143E-0003
   2727.776741  9.81948E-0001  9.86553E-0001  9.92158E-0001  9.90980E-0001  9.89966E-0001  9.95864E-0001  9.97352E-0001  9.94270E-0001  9.94844E-0001  9.93588E-0001  9.91165E-0001  9.94422E-0001
                9.84978E-0001  9.86633E-0001  9.88240E-0001  9.88820E-0001  9.89008E-0001  9.91336E-0001  9.93656E-0001  9.94577E-0001  9.95581E-0001  9.96232E-0001  9.96308E-0001  9.96768E-0001
               -3.02992E-0003 -7.96358E-0005  3.91789E-0003  2.16033E-0003  9.57922E-0004  4.52794E-0003  3.69621E-0003 -3.06871E-0004 -7.36528E-0004 -2.64340E-0003 -5.14254E-0003 -2.34631E-0003
   2727.799340  9.96985E-0001  9.96582E-0001  9.98269E-0001  9.97915E-0001  9.94982E-0001  9.94870E-0001  9.95831E-0001  9.97701E-0001  1.00013E+0000  9.98005E-0001  9.96548E-0001  9.99629E-0001
                9.97053E-0001  9.96983E-0001  9.97226E-0001  9.97342E-0001  9.97218E-0001  9.97311E-0001  9.97297E-0001  9.97110E-0001  9.97015E-0001  9.96797E-0001  9.96399E-0001  9.95871E-0001
               -6.78114E-0005 -4.00410E-0004  1.04305E-0003  5.72964E-0004 -2.23639E-0003 -2.44056E-0003 -1.46640E-0003  5.90798E-0004  3.11799E-0003  1.20758E-0003  1.48599E-0004  3.75836E-0003
   2727.821939  9.98182E-0001  9.93968E-0001  9.92401E-0001  9.86592E-0001  9.82030E-0001
                9.95076E-0001  9.93745E-0001  9.91140E-0001  9.87568E-0001  9.85398E-0001
                3.10591E-0003  2.22807E-0004  1.26130E-0003 -9.76674E-0004 -3.36882E-0003
 31/03/2005, 15:14:50, SCAN TIME:142.53 SEC. RES= 0.0050  APOD FN = BX          
       80230    1.883268360000000E-03          53     2775.700270826640008     2775.798200781359810        0.021000000000000    2    1    3
   2775.700271  1.00097E+0000  1.00013E+0000  1.00001E+0000  9.95611E-0001  9.93889E-0001  9.96559E-0001  9.91906E-0001  9.84704E-0001  9.83118E-0001  9.78181E-0001  9.73683E-0001  9.80348E-0001
                1.00000E+0000  9.99710E-0001  9.98829E-0001  9.97633E-0001  9.96372E-0001  9.94249E-0001  9.91209E-0001  9.86640E-0001  9.79985E-0001  9.75550E-0001  9.76868E-0001  9.79640E-0001
                9.71429E-0004  4.19301E-0004  1.17667E-0003 -2.02145E-0003 -2.48315E-0003  2.30994E-0003  6.96831E-0004 -1.93567E-0003  3.13310E-0003  2.63096E-0003 -3.18466E-0003  7.08455E-0004
   2775.722870  9.84574E-0001  9.76638E-0001  9.69215E-0001  9.66508E-0001  9.61351E-0001  9.52821E-0001  9.41243E-0001  9.24002E-0001  9.00596E-0001  8.70421E-0001  8.19416E-0001  7.27687E-0001
                9.79832E-0001  9.78248E-0001  9.74767E-0001  9.69531E-0001  9.63372E-0001  9.54315E-0001  9.42059E-0001  9.26657E-0001  9.03462E-0001  8.69449E-0001  8.15133E-0001  7.23590E-0001
                4.74195E-0003 -1.60910E-0003 -5.55249E-0003 -3.02237E-0003 -2.02108E-0003 -1.49426E-0003 -8.15423E-0004 -2.65545E-0003 -2.86590E-0003  9.72137E-0004  4.28328E-0003  4.09722E-0003
   2775.745469  6.26390E-0001  6.02357E-0001  6.83859E-0001  7.94215E-0001  8.65840E-0001  9.04656E-0001  9.30659E-0001  9.46965E-0001  9.57237E-0001  9.64642E-0001  9.69520E-0001  9.72499E-0001
                6.24204E-0001  6.00573E-0001  6.81344E-0001  7.92846E-0001  8.66202E-0001  9.04689E-0001  9.29480E-0001  9.44941E-0001  9.55403E-0001  9.64068E-0001  9.69301E-0001  9.73144E-0001
                2.18672E-0003  1.78445E-0003  2.51493E-0003  1.36907E-0003 -3.61238E-0004 -3.29936E-0005  1.17881E-0003  2.02353E-0003  1.83421E-0003  5.74300E-0004  2.19032E-0004 -6.44685E-0004
   2775.768068  9.72869E-0001  9.73393E-0001  9.77116E-0001  9.80096E-0001  9.81344E-0001  9.83729E-0001  9.83511E-0001  9.80120E-0001  9.80435E-0001  9.82338E-0001  9.79348E-0001  9.76423E-0001
                9.76917E-0001  9.78746E-0001  9.80078E-0001  9.81736E-0001  9.81957E-0001  9.81960E-0001  9.82404E-0001  9.81563E-0001  9.80540E-0001  9.79958E-0001  9.78032E-0001  9.75831E-0001
               -4.04766E-0003 -5.35300E-0003 -2.96101E-0003 -1.64048E-0003 -6.13228E-0004  1.76904E-0003  1.10749E-0003 -1.44261E-0003 -1.04799E-0004  2.37998E-0003  1.31603E-0003  5.92827E-0004
   2775.790668  9.77625E-0001  9.75179E-0001  9.65669E-0001  9.56738E-0001  9.52571E-0001
                9.73992E-0001  9.70447E-0001  9.66244E-0001  9.62063E-0001  9.55166E-0001
                3.63302E-0003  4.73285E-0003 -5.74888E-0004 -5.32495E-0003 -2.59500E-0003
 31/03/2005, 15:14:50, SCAN TIME:142.53 SEC. RES= 0.0050  APOD FN = BX          
       80230    1.883268360000000E-03         106     2925.800525655360161     2925.998268833160182        0.021000000000000    3    1    3
   2925.800526  1.00277E+0000  1.00303E+0000  1.00371E+0000  1.00520E+0000  1.00180E+0000  9.94948E-0001  9.96617E-0001  9.99412E-0001  9.90998E-0001  9.86113E-0001  9.92713E-0001  9.93897E-0001
                1.00000E+0000  9.99253E-0001  9.99343E-0001  9.99219E-0001  9.98556E-0001  9.98641E-0001  9.98341E-0001  9.97249E-0001  9.96299E-0001  9.93983E-0001  9.90584E-0001  9.88767E-0001
                2.77415E-0003  3.78142E-0003  4.36660E-0003  5.98377E-0003  3.24907E-0003 -3.69260E-0003 -1.72479E-0003  2.16337E-0003 -5.30117E-0003 -7.87014E-0003  2.12914E-0003  5.12978E-0003
   2925.823125  9.87166E-0001  9.83868E-0001  9.82831E-0001  9.81438E-0001  9.81336E-0001  9.79750E-0001  9.77013E-0001  9.75721E-0001  9.74256E-0001  9.73668E-0001  9.73430E-0001  9.68387E-0001
                9.87360E-0001  9.84700E-0001  9.82649E-0001  9.81736E-0001  9.80591E-0001  9.78982E-0001  9.76934E-0001  9.74746E-0001  9.72957E-0001  9.71028E-0001  9.68758E-0001  9.66506E-0001
               -1.94190E-0004 -8.32504E-0004  1.82443E-0004 -2.98590E-0004  7.44207E-0004  7.68066E-0004  7.87695E-0005  9.75194E-0004  1.29959E-0003  2.63976E-0003  4.67237E-0003  1.88104E-0003
   2925.845724  9.62532E-0001  9.60667E-0001  9.55073E-0001  9.45430E-0001  9.41282E-0001  9.37827E-0001  9.27916E-0001  9.20131E-0001  9.16484E-0001  9.06463E-0001  8.89737E-0001  8.72427E-0001
                9.63762E-0001  9.60373E-0001  9.56611E-0001  9.52012E-0001  9.46513E-0001  9.40261E-0001  9.32815E-0001  9.24183E-0001  9.14289E-0001  9.02644E-0001  8.89257E-0001  8.73521E-0001
               -1.22946E-0003  2.94093E-0004 -1.53857E-0003 -6.58124E-0003 -5.23068E-0003 -2.43477E-0003 -4.89907E-0003 -4.05155E-0003  2.19444E-0003  3.81904E-0003  4.79083E-0004 -1.09387E-0003
   2925.868323  8.54012E-0001  8.31486E-0001  7.99929E-0001  7.56465E-0001  6.99847E-0001  6.13384E-0001  4.94457E-0001  4.05370E-0001  4.17387E-0001  5.17085E-0001  6.34580E-0001  7.23885E-0001
                8.54423E-0001  8.31129E-0001  8.01087E-0001  7.61238E-0001  7.04372E-0001  6.14068E-0001  4.94708E-0001  4.07060E-0001  4.20134E-0001  5.23416E-0001  6.40600E-0001  7.21867E-0001
               -4.11556E-0004  3.56929E-0004 -1.15814E-0003 -4.77290E-0003 -4.52479E-0003 -6.83408E-0004 -2.51149E-0004 -1.69059E-0003 -2.74698E-0003 -6.33097E-0003 -6.02097E-0003  2.01846E-0003
   2925.890923  7.78651E-0001  8.12945E-0001  8.38180E-0001  8.53381E-0001  8.64193E-0001  8.79343E-0001  8.91583E-0001  8.98289E-0001  9.07548E-0001  9.14189E-0001  9.15246E-0001  9.21011E-0001
                7.71763E-0001  8.06380E-0001  8.31791E-0001  8.51833E-0001  8.68682E-0001  8.82100E-0001  8.93095E-0001  9.02343E-0001  9.09471E-0001  9.15360E-0001  9.20345E-0001  9.23859E-0001
                6.88800E-0003  6.56521E-0003  6.38810E-0003  1.54822E-0003 -4.48833E-0003 -2.75693E-0003 -1.51264E-0003 -4.05378E-0003 -1.92320E-0003 -1.17127E-0003 -5.09879E-0003 -2.84779E-0003
   2925.913522  9.28759E-0001  9.31229E-0001  9.32953E-0001  9.32603E-0001  9.29212E-0001  9.31086E-0001  9.35382E-0001  9.36842E-0001  9.39567E-0001  9.39010E-0001  9.34046E-0001  9.35153E-0001
                9.26667E-0001  9.28997E-0001  9.30226E-0001  9.31154E-0001  9.32012E-0001  9.32168E-0001  9.32534E-0001  9.33359E-0001  9.33764E-0001  9.34381E-0001  9.35203E-0001  9.35225E-0001
                2.09146E-0003  2.23210E-0003  2.72703E-0003  1.44925E-0003 -2.80096E-0003 -1.08271E-0003  2.84811E-0003  3.48292E-0003  5.80297E-0003  4.62866E-0003 -1.15690E-0003 -7.20182E-0005
   2925.936121  9.36364E-0001  9.30601E-0001  9.30210E-0001  9.33990E-0001  9.31385E-0001  9.30276E-0001  9.32175E-0001  9.29580E-0001  9.29386E-0001  9.31588E-0001  9.28307E-0001  9.27311E-0001
                9.35147E-0001  9.34993E-0001  9.34001E-0001  9.33464E-0001  9.33371E-0001  9.32186E-0001  9.30900E-0001  9.29868E-0001  9.27961E-0001  9.26455E-0001  9.25721E-0001  9.24478E-0001
                1.21640E-0003 -4.39190E-0003 -3.79106E-0003  5.25703E-0004 -1.98569E-0003 -1.90956E-0003  1.27471E-0003 -2.87827E-0004  1.42463E-0003  5.13313E-0003  2.58665E-0003  2.83210E-0003
   2925.958720  9.28626E-0001  9.22589E-0001  9.19766E-0001  9.25669E-0001  9.25478E-0001  9.19591E-0001  9.17259E-0001  9.15447E-0001  9.14833E-0001  9.15112E-0001  9.09785E-0001  9.07734E-0001
                9.23872E-0001  9.23858E-0001  9.22786E-0001  9.22012E-0001  9.21646E-0001  9.19950E-0001  9.18503E-0001  9.17545E-0001  9.15276E-0001  9.13476E-0001  9.12341E-0001  9.09864E-0001
                4.75395E-0003 -1.26959E-0003 -3.01965E-0003  3.65697E-0003  3.83185E-0003 -3.59188E-0004 -1.24327E-0003 -2.09754E-0003 -4.42881E-0004  1.63585E-0003 -2.55614E-0003 -2.12997E-0003
   2925.981319  9.15195E-0001  9.16556E-0001  9.09717E-0001  9.08096E-0001  9.06811E-0001  9.00716E-0001  9.00320E-0001  9.03105E-0001  9.00401E-0001  9.01400E-0001
                9.08115E-0001  9.07413E-0001  9.05615E-0001  9.05035E-0001  9.05756E-0001  9.05003E-0001  9.05194E-0001  9.06420E-0001  9.05625E-0001  9.05632E-0001
                7.07998E-0003  9.14342E-0003  4.10226E-0003  3.06122E-0003  1.05471E-0003 -4.28687E-0003 -4.87383E-0003 -3.31561E-0003 -5.22390E-0003 -4.23194E-0003
